#Acq. time (s)=	10
#Accumulations=	5
#AutoExposure=	Off
#Spike filter=	Multiple accum.
#Readout mode=	Signal
#DeNoise=	Off
#ICS correction=	Off
#Dark correction=	Off
#Inst. Process=	Off
#Detector Gain=	High Sensitivity
#Detector ADC=	45 kHz 
#Detector temperature (°C)=	-49.97
#Instrument=	OSD
#Detector=	Syncerity
#Grating=	685
#Laser (nm)=	785 
#Spectro (cm-¹)=	2019.74
#Laser power=	50
#E-Cal_Neon=	0
#Full time(s)=	51
#AC=	Not calibrated
#Project=	A
#Sample=	B
#Site=	C
#Title=	CC-124-TAP-1_4
#Remark=	
#Date=	08.10.2024 13:47
#Acquired=	08.10.2024 13:47:42
#AxisType[0]=Intens
#AxisUnit[0]=Cnt
#AxisType[1]=Spectr
#AxisUnit[1]=1/cm
3513.15	22
3511.88	21
3510.6	20
3509.33	24
3508.05	21
3506.77	25.5
3505.49	22.5
3504.22	24
3502.94	23
3501.66	23
3500.38	22
3499.1	31.5
3497.82	22
3496.54	21
3495.26	23.5
3493.98	28
3492.7	29
3491.42	25
3490.14	30
3488.85	22
3487.57	28.5
3486.29	24
3485.01	21.5
3483.72	27.5
3482.44	30.5
3481.15	24
3479.87	24
3478.59	28.5
3477.3	26.5
3476.02	23
3474.73	25
3473.44	27
3472.16	25
3470.87	29.5
3469.58	26.5
3468.3	23
3467.01	31.5
3465.72	25.5
3464.43	28
3463.14	26
3461.85	27.5
3460.56	31
3459.28	31
3457.99	28
3456.69	32.5
3455.4	29
3454.11	27
3452.82	33.5
3451.53	31.5
3450.24	34.5
3448.95	28
3447.65	32
3446.36	29.5
3445.07	33
3443.77	29
3442.48	32
3441.18	30
3439.89	27.5
3438.59	38
3437.3	30.5
3436	33.5
3434.71	37
3433.41	37
3432.11	30
3430.81	38
3429.52	33
3428.22	31
3426.92	29
3425.62	34.5
3424.32	34
3423.02	37
3421.72	31
3420.42	34
3419.12	35
3417.82	32
3416.52	30
3415.22	34.5
3413.92	38
3412.62	39.5
3411.31	36
3410.01	34
3408.71	34
3407.41	38
3406.1	34
3404.8	37.5
3403.49	39
3402.19	38.5
3400.88	34.5
3399.58	37.5
3398.27	33.5
3396.97	40
3395.66	36
3394.35	37.5
3393.05	38.5
3391.74	34
3390.43	35.5
3389.12	39
3387.82	34.5
3386.51	41
3385.2	42
3383.89	44
3382.58	43
3381.27	43
3379.96	41
3378.65	39
3377.34	38.5
3376.02	40
3374.71	44
3373.4	41
3372.09	44.5
3370.77	40
3369.46	47.5
3368.15	47
3366.83	45.5
3365.52	45.5
3364.2	36
3362.89	45
3361.57	46
3360.26	47
3358.94	39.5
3357.63	46
3356.31	49.5
3354.99	47
3353.67	43
3352.36	49
3351.04	42
3349.72	44.5
3348.4	45
3347.08	45
3345.76	47
3344.44	47
3343.12	45
3341.8	50
3340.48	48
3339.16	43.5
3337.84	48
3336.52	46.5
3335.2	47.5
3333.87	44
3332.55	50.5
3331.23	51.5
3329.9	53.5
3328.58	50
3327.25	46.5
3325.93	51
3324.61	49
3323.28	54
3321.95	50
3320.63	48
3319.3	44.5
3317.98	51.5
3316.65	50.5
3315.32	49
3313.99	48.5
3312.66	51.5
3311.34	52.5
3310.01	51.5
3308.68	53
3307.35	53
3306.02	51
3304.69	51
3303.36	51
3302.03	56
3300.7	56.5
3299.36	56
3298.03	60.5
3296.7	63
3295.37	49
3294.04	54
3292.7	57
3291.37	56.5
3290.03	47
3288.7	57
3287.36	57
3286.03	58.5
3284.69	55.5
3283.36	52
3282.02	54
3280.69	60
3279.35	59
3278.01	58
3276.68	61
3275.34	59
3274	55.5
3272.66	61
3271.32	58.5
3269.98	59.5
3268.64	62
3267.3	55
3265.96	61
3264.62	66
3263.28	62
3261.94	63
3260.6	65.5
3259.26	71
3257.92	66
3256.57	64.5
3255.23	67.5
3253.89	63
3252.54	66.5
3251.2	60.5
3249.85	65
3248.51	70
3247.16	67
3245.82	73.5
3244.47	59.5
3243.13	65.5
3241.78	68
3240.43	64
3239.09	65
3237.74	62
3236.39	70
3235.04	70.5
3233.69	63
3232.34	71.5
3230.99	65.5
3229.65	71.5
3228.3	68
3226.94	68
3225.59	70.5
3224.24	67
3222.89	68
3221.54	74
3220.19	70.5
3218.84	68.5
3217.48	69
3216.13	70
3214.78	73
3213.42	77.5
3212.07	68
3210.71	69
3209.36	76.5
3208	72.5
3206.65	72
3205.29	76
3203.93	69.5
3202.58	73
3201.22	78
3199.86	77.5
3198.51	73
3197.15	73
3195.79	72.5
3194.43	75.5
3193.07	73
3191.71	76.5
3190.35	77.5
3188.99	75
3187.63	76
3186.27	76.5
3184.91	72.5
3183.55	82
3182.19	77.5
3180.82	82.5
3179.46	71
3178.1	78
3176.73	81
3175.37	81.5
3174.01	73
3172.64	71.5
3171.28	78
3169.91	77
3168.55	81
3167.18	84
3165.81	80.5
3164.45	86
3163.08	86
3161.71	90
3160.35	86.5
3158.98	86
3157.61	93.5
3156.24	86
3154.87	88
3153.5	87
3152.13	89
3150.76	89
3149.39	90
3148.02	84.5
3146.65	90.5
3145.28	89.5
3143.91	95.5
3142.54	92
3141.16	90.5
3139.79	92.5
3138.42	93.5
3137.04	89
3135.67	94
3134.29	92
3132.92	96
3131.54	97
3130.17	95
3128.79	97.5
3127.42	103.5
3126.04	93
3124.66	95.5
3123.29	92
3121.91	97
3120.53	96
3119.15	101
3117.77	101
3116.39	99.5
3115.02	102.5
3113.64	96
3112.26	91.5
3110.88	93
3109.49	97
3108.11	105.5
3106.73	98
3105.35	104
3103.97	101
3102.59	101.5
3101.2	97.5
3099.82	112
3098.44	98
3097.05	102
3095.67	116
3094.28	110
3092.9	110.5
3091.51	106
3090.13	102
3088.74	104.5
3087.35	99.5
3085.97	109.5
3084.58	105
3083.19	115.5
3081.8	104
3080.42	106.5
3079.03	112
3077.64	106.5
3076.25	113
3074.86	112.5
3073.47	111
3072.08	120.5
3070.69	113
3069.3	121
3067.91	119
3066.51	106
3065.12	116.5
3063.73	115
3062.34	118.5
3060.94	114
3059.55	125
3058.16	117
3056.76	123
3055.37	124
3053.97	119
3052.58	120.5
3051.18	125
3049.78	120
3048.39	133
3046.99	121.5
3045.59	124
3044.2	133
3042.8	122
3041.4	122
3040	127.5
3038.6	135
3037.2	126
3035.8	127.5
3034.4	135.5
3033	131
3031.6	129
3030.2	135.5
3028.8	135
3027.4	125
3025.99	135.5
3024.59	137
3023.19	134.5
3021.78	134.5
3020.38	130
3018.98	135.5
3017.57	138
3016.17	136
3014.76	130.5
3013.36	141.5
3011.95	134.5
3010.54	140.5
3009.14	140.5
3007.73	150
3006.32	135
3004.92	136.5
3003.51	128.5
3002.1	150
3000.69	152
2999.28	151.5
2997.87	144
2996.46	152
2995.05	146
2993.64	146
2992.23	152
2990.82	159
2989.41	153
2988	150.5
2986.58	151
2985.17	154.5
2983.76	156
2982.34	154
2980.93	161
2979.52	152
2978.1	166
2976.69	159.5
2975.27	159.5
2973.86	159
2972.44	164
2971.02	166.5
2969.61	165
2968.19	161
2966.77	164
2965.35	167
2963.94	168.5
2962.52	177
2961.1	159
2959.68	168
2958.26	167
2956.84	172.5
2955.42	171
2954	176.5
2952.58	175.5
2951.16	176.5
2949.73	175.5
2948.31	179.5
2946.89	175
2945.47	173
2944.04	184
2942.62	187.5
2941.19	176
2939.77	176
2938.34	182
2936.92	178.5
2935.49	182
2934.07	178
2932.64	178
2931.22	196
2929.79	185
2928.36	190
2926.93	199
2925.5	190
2924.08	191.5
2922.65	193
2921.22	193
2919.79	192.5
2918.36	192
2916.93	200.5
2915.5	197
2914.07	197
2912.64	201.5
2911.2	184.5
2909.77	201
2908.34	194.5
2906.91	204.5
2905.47	199
2904.04	205.5
2902.61	204.5
2901.17	207.5
2899.74	199
2898.3	202.5
2896.87	210
2895.43	199.5
2893.99	211
2892.56	203
2891.12	209
2889.68	213
2888.25	219
2886.81	205
2885.37	201
2883.93	215
2882.49	215.5
2881.05	223
2879.61	228
2878.17	222
2876.73	223
2875.29	220.5
2873.85	224.5
2872.41	217
2870.97	223
2869.52	229
2868.08	211.5
2866.64	232.5
2865.19	225
2863.75	227.5
2862.31	233
2860.86	219.5
2859.42	236
2857.97	231
2856.52	219
2855.08	230
2853.63	238
2852.19	234
2850.74	237.5
2849.29	224
2847.84	231
2846.39	226
2844.95	240
2843.5	241
2842.05	234.5
2840.6	247.5
2839.15	238
2837.7	238
2836.25	246.5
2834.79	249.5
2833.34	234.5
2831.89	241.5
2830.44	240.5
2828.99	240
2827.53	251
2826.08	251
2824.62	247.5
2823.17	252.5
2821.72	246.5
2820.26	261
2818.81	250
2817.35	253
2815.89	264.5
2814.44	246
2812.98	255
2811.52	263
2810.06	256.5
2808.61	253
2807.15	251
2805.69	257.5
2804.23	255
2802.77	241
2801.31	267
2799.85	267
2798.39	259
2796.93	265
2795.47	264
2794.01	264
2792.54	282
2791.08	270.5
2789.62	276.5
2788.16	260
2786.69	280.5
2785.23	273.5
2783.76	269
2782.3	281
2780.83	287
2779.37	273
2777.9	276
2776.44	281
2774.97	281
2773.5	290.5
2772.04	280
2770.57	285
2769.1	284.5
2767.63	293
2766.16	290
2764.69	298
2763.22	287
2761.75	288
2760.28	300.5
2758.81	302
2757.34	298.5
2755.87	295.5
2754.4	304
2752.93	296
2751.45	300.5
2749.98	304
2748.51	315
2747.03	313.5
2745.56	307.5
2744.09	306
2742.61	316
2741.14	317
2739.66	311.5
2738.18	317
2736.71	308
2735.23	312.5
2733.75	310
2732.28	320
2730.8	309.5
2729.32	322.5
2727.84	321
2726.36	326
2724.88	332
2723.4	325
2721.92	326.5
2720.44	325.5
2718.96	331
2717.48	332
2716	325.5
2714.52	331.5
2713.04	336.5
2711.55	323.5
2710.07	341
2708.59	327.5
2707.1	339.5
2705.62	331
2704.13	334
2702.65	352.5
2701.16	365
2699.68	357.5
2698.19	350.5
2696.7	354
2695.22	338.5
2693.73	352
2692.24	357
2690.76	356.5
2689.27	346
2687.78	358.5
2686.29	360.5
2684.8	349
2683.31	356
2681.82	350.5
2680.33	332.5
2678.84	365
2677.35	360.5
2675.85	373.5
2674.36	360.5
2672.87	379.5
2671.38	370
2669.88	373
2668.39	376
2666.9	366.5
2665.4	367
2663.91	383
2662.41	374
2660.92	375.5
2659.42	368
2657.92	387
2656.43	380.5
2654.93	385.5
2653.43	396.5
2651.93	379
2650.44	384
2648.94	384.5
2647.44	385
2645.94	388.5
2644.44	402.5
2642.94	384.5
2641.44	383.5
2639.94	391
2638.44	389.5
2636.93	380
2635.43	384
2633.93	400
2632.43	410
2630.92	406
2629.42	401.5
2627.92	406
2626.41	417.5
2624.91	405
2623.4	401.5
2621.9	428
2620.39	405
2618.88	403.5
2617.38	396
2615.87	419
2614.36	406.5
2612.86	423.5
2611.35	440.5
2609.84	399
2608.33	420
2606.82	428
2605.31	408
2603.8	428
2602.29	428
2600.78	415
2599.27	435.5
2597.76	405.5
2596.24	436.5
2594.73	415
2593.22	421.5
2591.71	430.5
2590.19	429
2588.68	438.5
2587.16	437.5
2585.65	432
2584.13	428.5
2582.62	453.5
2581.1	432
2579.59	462
2578.07	445
2576.55	448
2575.04	449.5
2573.52	450
2572	461
2570.48	449
2568.96	457
2567.44	462
2565.92	457
2564.4	447
2562.88	451
2561.36	465
2559.84	440
2558.32	465.5
2556.8	462
2555.27	473
2553.75	475.5
2552.23	477
2550.71	472.5
2549.18	463.5
2547.66	478.5
2546.13	472.5
2544.61	480
2543.08	490
2541.56	476
2540.03	492
2538.5	485.5
2536.98	487.5
2535.45	476
2533.92	478
2532.39	491
2530.86	489
2529.34	494
2527.81	495.5
2526.28	495
2524.75	504
2523.22	501.5
2521.68	499
2520.15	507.5
2518.62	514
2517.09	499.5
2515.56	503
2514.02	523
2512.49	527
2510.96	520
2509.42	515.5
2507.89	524.5
2506.35	513
2504.82	523
2503.28	524
2501.75	526.5
2500.21	539.5
2498.67	510.5
2497.14	516.5
2495.6	527
2494.06	543
2492.52	530
2490.99	540.5
2489.45	510
2487.91	535
2486.37	528.5
2484.83	542
2483.29	542
2481.75	548
2480.2	555.5
2478.66	539.5
2477.12	537.5
2475.58	543.5
2474.03	542
2472.49	557
2470.95	569.5
2469.4	566
2467.86	561.5
2466.31	571.5
2464.77	542
2463.22	573.5
2461.68	560.5
2460.13	577
2458.58	551
2457.04	571
2455.49	581.5
2453.94	590
2452.39	562.5
2450.84	569
2449.29	583
2447.74	576
2446.2	571.5
2444.64	586
2443.09	582.5
2441.54	585.5
2439.99	584.5
2438.44	594.5
2436.89	564.5
2435.33	589.5
2433.78	577
2432.23	601
2430.67	608
2429.12	598
2427.56	597.5
2426.01	596
2424.45	601
2422.9	581
2421.34	614.5
2419.79	603.5
2418.23	614
2416.67	611.5
2415.11	605.5
2413.56	622
2412	605
2410.44	616.5
2408.88	620.5
2407.32	633
2405.76	628
2404.2	625.5
2402.64	614.5
2401.08	635
2399.51	634
2397.95	647
2396.39	633.5
2394.83	633.5
2393.26	644
2391.7	651.5
2390.13	631
2388.57	635
2387.01	619.5
2385.44	655.5
2383.87	645.5
2382.31	657.5
2380.74	646.5
2379.18	679
2377.61	658.5
2376.04	660
2374.47	666.5
2372.9	657
2371.33	659
2369.77	663.5
2368.2	660.5
2366.63	666.5
2365.06	679
2363.48	679.5
2361.91	667.5
2360.34	667.5
2358.77	670
2357.2	688.5
2355.62	667
2354.05	669
2352.48	682
2350.9	700.5
2349.33	695.5
2347.75	714.5
2346.18	670
2344.6	682
2343.03	706
2341.45	697.5
2339.87	699.5
2338.3	698.5
2336.72	694
2335.14	713
2333.56	736
2331.98	735
2330.41	735.5
2328.83	769.5
2327.25	738
2325.67	724
2324.09	731.5
2322.5	735
2320.92	718
2319.34	722
2317.76	724
2316.18	737.5
2314.59	708
2313.01	714.5
2311.42	721
2309.84	740
2308.26	743
2306.67	732
2305.08	747.5
2303.5	755
2301.91	747.5
2300.33	761
2298.74	735.5
2297.15	743
2295.56	741.5
2293.98	766.5
2292.39	767.5
2290.8	773.5
2289.21	763.5
2287.62	755.5
2286.03	761.5
2284.44	769
2282.85	751
2281.25	766.5
2279.66	802.5
2278.07	775.5
2276.48	783.5
2274.88	783.5
2273.29	790.5
2271.7	778.5
2270.1	766.5
2268.51	789
2266.91	776
2265.32	806
2263.72	786.5
2262.12	823.5
2260.53	805
2258.93	802
2257.33	797
2255.74	815.5
2254.14	814.5
2252.54	806
2250.94	827.5
2249.34	827
2247.74	818
2246.14	827.5
2244.54	831
2242.94	829.5
2241.34	822
2239.73	825
2238.13	826
2236.53	820.5
2234.93	830.5
2233.32	822.5
2231.72	837.5
2230.11	841
2228.51	840.5
2226.9	844.5
2225.3	851
2223.69	845.5
2222.09	854.5
2220.48	853
2218.87	843
2217.26	857
2215.66	852.5
2214.05	864.5
2212.44	850
2210.83	878
2209.22	848
2207.61	899
2206	882.5
2204.39	879
2202.78	883
2201.17	877
2199.55	889.5
2197.94	880.5
2196.33	864.5
2194.72	897
2193.1	864
2191.49	900.5
2189.87	899.5
2188.26	904.5
2186.64	922
2185.03	891.5
2183.41	912.5
2181.8	913.5
2180.18	895.5
2178.56	904
2176.94	934.5
2175.33	929
2173.71	916.5
2172.09	912.5
2170.47	933.5
2168.85	925
2167.23	921
2165.61	907.5
2163.99	932.5
2162.37	949
2160.74	929.5
2159.12	955.5
2157.5	936.5
2155.88	944.5
2154.25	961
2152.63	946.5
2151.01	951
2149.38	955
2147.76	957
2146.13	963
2144.5	943.5
2142.88	936
2141.25	971.5
2139.62	985.5
2138	970
2136.37	991.5
2134.74	995.5
2133.11	995
2131.48	990.5
2129.85	978
2128.22	989.5
2126.59	988.5
2124.96	994
2123.33	1004
2121.7	1001.5
2120.07	1000
2118.44	989
2116.8	1017.5
2115.17	995
2113.54	1005
2111.9	989
2110.27	1001
2108.63	994
2107	1010.5
2105.36	1008
2103.73	1015
2102.09	1018
2100.45	1001
2098.82	1012.5
2097.18	1041.5
2095.54	1037.5
2093.9	1014.5
2092.26	1036.5
2090.62	1050.5
2088.98	1048
2087.34	1028.5
2085.7	1051.5
2084.06	1025
2082.42	1048.5
2080.78	1037
2079.14	1033.5
2077.49	1067
2075.85	1059.5
2074.21	1056.5
2072.56	1060.5
2070.92	1065.5
2069.27	1085.5
2067.63	1084
2065.98	1066
2064.34	1084
2062.69	1064
2061.04	1074
2059.4	1095
2057.75	1089.5
2056.1	1078
2054.45	1100
2052.8	1100
2051.16	1094.5
2049.51	1118.5
2047.86	1116
2046.21	1096
2044.55	1116
2042.9	1088.5
2041.25	1113.5
2039.6	1145.5
2037.95	1144
2036.29	1132.5
2034.64	1151.5
2032.99	1142
2031.33	1130
2029.68	1154.5
2028.02	1143.5
2026.37	1151.5
2024.71	1148
2023.06	1156
2021.4	1150.5
2019.74	1167.5
2018.08	1180.5
2016.43	1168.5
2014.77	1158
2013.11	1176
2011.45	1174.5
2009.79	1173
2008.13	1185.5
2006.47	1179.5
2004.81	1177
2003.15	1188
2001.49	1200
1999.82	1178
1998.16	1189.5
1996.5	1178.5
1994.84	1207
1993.17	1214
1991.51	1218
1989.84	1200.5
1988.18	1211.5
1986.51	1204.5
1984.85	1222
1983.18	1227.5
1981.51	1225.5
1979.85	1229
1978.18	1223.5
1976.51	1226.5
1974.84	1211
1973.18	1235.5
1971.51	1238
1969.84	1208
1968.17	1250
1966.5	1232
1964.83	1270.5
1963.15	1230.5
1961.48	1242.5
1959.81	1273.5
1958.14	1261.5
1956.47	1266.5
1954.79	1259
1953.12	1279.5
1951.44	1258
1949.77	1272
1948.1	1267.5
1946.42	1285
1944.74	1293.5
1943.07	1267
1941.39	1273.5
1939.71	1271.5
1938.04	1314
1936.36	1288
1934.68	1308.5
1933	1292
1931.32	1297
1929.64	1318
1927.96	1301
1926.28	1322.5
1924.6	1304
1922.92	1312.5
1921.24	1325.5
1919.56	1333
1917.87	1321.5
1916.19	1323
1914.51	1341.5
1912.82	1341
1911.14	1323.5
1909.46	1344
1907.77	1338.5
1906.09	1334
1904.4	1342
1902.71	1328
1901.03	1325.5
1899.34	1321
1897.65	1339.5
1895.96	1355
1894.28	1361.5
1892.59	1334
1890.9	1365.5
1889.21	1368
1887.52	1376
1885.83	1359
1884.14	1362.5
1882.45	1361
1880.75	1352.5
1879.06	1367
1877.37	1376.5
1875.68	1389
1873.98	1387
1872.29	1373.5
1870.59	1387
1868.9	1398.5
1867.2	1402
1865.51	1418
1863.81	1420.5
1862.12	1409.5
1860.42	1421.5
1858.72	1406.5
1857.02	1440.5
1855.33	1442.5
1853.63	1453
1851.93	1446
1850.23	1467
1848.53	1444
1846.83	1454
1845.13	1462.5
1843.43	1472.5
1841.73	1465
1840.02	1445.5
1838.32	1489.5
1836.62	1485.5
1834.92	1458.5
1833.21	1474
1831.51	1489
1829.8	1497
1828.1	1484.5
1826.39	1492.5
1824.69	1496
1822.98	1502
1821.28	1509
1819.57	1503
1817.86	1498.5
1816.15	1521.5
1814.45	1544
1812.74	1516.5
1811.03	1517.5
1809.32	1514.5
1807.61	1534
1805.9	1538
1804.19	1551
1802.48	1561.5
1800.76	1545.5
1799.05	1570
1797.34	1530.5
1795.63	1554
1793.91	1577.5
1792.2	1581.5
1790.48	1586
1788.77	1565.5
1787.05	1592.5
1785.34	1578
1783.62	1578.5
1781.91	1601
1780.19	1605
1778.47	1590.5
1776.76	1613
1775.04	1613.5
1773.32	1610
1771.6	1609
1769.88	1604
1768.16	1652
1766.44	1612
1764.72	1659.5
1763	1664
1761.28	1650
1759.56	1650.5
1757.83	1631
1756.11	1641
1754.39	1692
1752.66	1705.5
1750.94	1650.5
1749.21	1673.5
1747.49	1682
1745.76	1702.5
1744.04	1682
1742.31	1657.5
1740.59	1682
1738.86	1672
1737.13	1688
1735.4	1692
1733.68	1719
1731.95	1696
1730.22	1696
1728.49	1667.5
1726.76	1703
1725.03	1707
1723.3	1706
1721.56	1725.5
1719.83	1704.5
1718.1	1680.5
1716.37	1689.5
1714.63	1731.5
1712.9	1718
1711.17	1723.5
1709.43	1697.5
1707.7	1714
1705.96	1699
1704.23	1730
1702.49	1723
1700.75	1733
1699.02	1733.5
1697.28	1719.5
1695.54	1736
1693.8	1748
1692.07	1729.5
1690.33	1776.5
1688.59	1771.5
1686.85	1775.5
1685.11	1736.5
1683.37	1758
1681.62	1779.5
1679.88	1771.5
1678.14	1765.5
1676.4	1766.5
1674.65	1790
1672.91	1774.5
1671.17	1789.5
1669.42	1766.5
1667.68	1787
1665.93	1796.5
1664.19	1802
1662.44	1812
1660.69	1776.5
1658.95	1788
1657.2	1799.5
1655.45	1839.5
1653.7	1833.5
1651.96	1806
1650.21	1823
1648.46	1860
1646.71	1843
1644.96	1857
1643.21	1831.5
1641.45	1839
1639.7	1835.5
1637.95	1870.5
1636.2	1863
1634.45	1865.5
1632.69	1847.5
1630.94	1891
1629.18	1887.5
1627.43	1912.5
1625.67	1887.5
1623.92	1926
1622.16	1908
1620.41	1905.5
1618.65	1947.5
1616.89	1976
1615.13	1923.5
1613.37	1987
1611.62	1998
1609.86	2007.5
1608.1	2013
1606.34	2014.5
1604.58	2010.5
1602.82	1995
1601.05	2007
1599.29	1948
1597.53	2009.5
1595.77	1982
1594.01	1999.5
1592.24	1989.5
1590.48	1986.5
1588.71	2018.5
1586.95	2010
1585.18	2019
1583.42	2011.5
1581.65	2012.5
1579.88	2025.5
1578.12	2050.5
1576.35	2044
1574.58	2024
1572.81	2037
1571.05	2059.5
1569.28	2072.5
1567.51	2067.5
1565.74	2091.5
1563.97	2073.5
1562.19	2097.5
1560.42	2110
1558.65	2118
1556.88	2148.5
1555.11	2157.5
1553.33	2181.5
1551.56	2190.5
1549.79	2178.5
1548.01	2165
1546.24	2182.5
1544.46	2163.5
1542.69	2181.5
1540.91	2229
1539.13	2216
1537.36	2272.5
1535.58	2318.5
1533.8	2359
1532.02	2400
1530.24	2470
1528.46	2455.5
1526.68	2529.5
1524.9	2519.5
1523.12	2537.5
1521.34	2509.5
1519.56	2435.5
1517.78	2395
1516	2360
1514.21	2304
1512.43	2262.5
1510.65	2236.5
1508.86	2222
1507.08	2204.5
1505.29	2165.5
1503.51	2188
1501.72	2181
1499.93	2169
1498.15	2166
1496.36	2180
1494.57	2201.5
1492.78	2221.5
1491	2230.5
1489.21	2233.5
1487.42	2217
1485.63	2243
1483.84	2252.5
1482.05	2212
1480.25	2253.5
1478.46	2260.5
1476.67	2243.5
1474.88	2237
1473.09	2241
1471.29	2265
1469.5	2285.5
1467.7	2270.5
1465.91	2269
1464.11	2279.5
1462.32	2297.5
1460.52	2282.5
1458.72	2289.5
1456.93	2280
1455.13	2302.5
1453.33	2309.5
1451.53	2338.5
1449.74	2310.5
1447.94	2345
1446.14	2348
1444.34	2364.5
1442.54	2336.5
1440.73	2417
1438.93	2375
1437.13	2401
1435.33	2392.5
1433.53	2395
1431.72	2376
1429.92	2343
1428.11	2358.5
1426.31	2362
1424.51	2363.5
1422.7	2316
1420.89	2324.5
1419.09	2376.5
1417.28	2361.5
1415.47	2340
1413.66	2357
1411.86	2379
1410.05	2387
1408.24	2395.5
1406.43	2360.5
1404.62	2402.5
1402.81	2414
1401	2451
1399.19	2421.5
1397.38	2417
1395.56	2458
1393.75	2452.5
1391.94	2479.5
1390.12	2492
1388.31	2455.5
1386.49	2468
1384.68	2461.5
1382.87	2434.5
1381.05	2475.5
1379.23	2455.5
1377.42	2481
1375.6	2433.5
1373.78	2483
1371.96	2459
1370.14	2446
1368.33	2445
1366.51	2474.5
1364.69	2463
1362.87	2449.5
1361.05	2450
1359.22	2483
1357.4	2476
1355.58	2479.5
1353.76	2512.5
1351.93	2517.5
1350.11	2540.5
1348.29	2527
1346.46	2578.5
1344.64	2541
1342.81	2555.5
1340.99	2631
1339.16	2606.5
1337.33	2611.5
1335.51	2641.5
1333.68	2687.5
1331.85	2723.5
1330.02	2707
1328.19	2754
1326.36	2804.5
1324.53	2832.5
1322.7	2783.5
1320.87	2744.5
1319.04	2727.5
1317.21	2697
1315.38	2708.5
1313.55	2726.5
1311.71	2699.5
1309.88	2736
1308.05	2727.5
1306.21	2704
1304.38	2705.5
1302.54	2713.5
1300.71	2730.5
1298.87	2724
1297.03	2741.5
1295.2	2712
1293.36	2718
1291.52	2718.5
1289.68	2778.5
1287.84	2796.5
1286	2802.5
1284.16	2820
1282.32	2815.5
1280.48	2783.5
1278.64	2744
1276.8	2745
1274.96	2788
1273.12	2735
1271.27	2751.5
1269.43	2754.5
1267.59	2764.5
1265.74	2773.5
1263.9	2780
1262.05	2778.5
1260.21	2811
1258.36	2773.5
1256.51	2763
1254.67	2773.5
1252.82	2785
1250.97	2760.5
1249.12	2791
1247.27	2781.5
1245.42	2749.5
1243.57	2808.5
1241.72	2800.5
1239.87	2841
1238.02	2838
1236.17	2836
1234.32	2911.5
1232.47	2876
1230.61	2888.5
1228.76	2955
1226.9	2937.5
1225.05	2940.5
1223.2	2994.5
1221.34	2986
1219.48	3006
1217.63	2956
1215.77	2996
1213.91	2997.5
1212.06	2962
1210.2	3005
1208.34	2994.5
1206.48	2975.5
1204.62	2981.5
1202.76	2970.5
1200.9	2960
1199.04	3044.5
1197.18	2975.5
1195.32	2996
1193.46	3018.5
1191.59	3036
1189.73	3081
1187.87	3077.5
1186	3113.5
1184.14	3149
1182.27	3134
1180.41	3130.5
1178.54	3138.5
1176.67	3125
1174.81	3104.5
1172.94	3094
1171.07	3064.5
1169.2	3071.5
1167.34	3080
1165.47	3110.5
1163.6	3169.5
1161.73	3200.5
1159.86	3259
1157.99	3299
1156.11	3336
1154.24	3370
1152.37	3338
1150.5	3294.5
1148.62	3322
1146.75	3251
1144.88	3254.5
1143	3280
1141.13	3235.5
1139.25	3211.5
1137.37	3207
1135.5	3144.5
1133.62	3132
1131.74	3161.5
1129.87	3163.5
1127.99	3139.5
1126.11	3137.5
1124.23	3140
1122.35	3143
1120.47	3134.5
1118.59	3154
1116.71	3213
1114.83	3204
1112.94	3246.5
1111.06	3236.5
1109.18	3205.5
1107.29	3195
1105.41	3238.5
1103.53	3198.5
1101.64	3221
1099.76	3182.5
1097.87	3205.5
1095.98	3209
1094.1	3204
1092.21	3229
1090.32	3280.5
1088.43	3250
1086.55	3274.5
1084.66	3265
1082.77	3276
1080.88	3264
1078.99	3284
1077.1	3254
1075.2	3281.5
1073.31	3318.5
1071.42	3327
1069.53	3323
1067.63	3360
1065.74	3334.5
1063.85	3355
1061.95	3302.5
1060.06	3356.5
1058.16	3358
1056.26	3295
1054.37	3333
1052.47	3351.5
1050.57	3348
1048.67	3367.5
1046.78	3378
1044.88	3368.5
1042.98	3392.5
1041.08	3329
1039.18	3366
1037.28	3372
1035.38	3382
1033.47	3404.5
1031.57	3367.5
1029.67	3381.5
1027.77	3389.5
1025.86	3390.5
1023.96	3414.5
1022.05	3440
1020.15	3432.5
1018.24	3417
1016.34	3453.5
1014.43	3432
1012.52	3421
1010.62	3473.5
1008.71	3489.5
1006.8	3533
1004.89	3497.5
1002.98	3556.5
1001.07	3590.5
999.164	3567.5
997.253	3559
995.342	3593
993.431	3610
991.518	3588.5
989.606	3625
987.693	3628.5
985.779	3636.5
983.866	3631
981.951	3604.5
980.036	3628.5
978.121	3663.5
976.205	3609.5
974.289	3601.5
972.372	3658.5
970.455	3665
968.537	3635.5
966.619	3611
964.7	3650.5
962.781	3644.5
960.862	3645
958.941	3652.5
957.021	3670
955.1	3684.5
953.178	3651.5
951.256	3668
949.333	3665
947.411	3641
945.487	3691
943.563	3701
941.639	3663
939.715	3686
937.789	3683.5
935.863	3707
933.937	3737.5
932.011	3718
930.083	3701
928.156	3732
926.227	3772.5
924.299	3752.5
922.369	3821.5
920.44	3782.5
918.51	3820.5
916.58	3801
914.649	3820
912.717	3824
910.785	3823.5
908.853	3796
906.92	3809
904.986	3819.5
903.052	3800.5
901.118	3856.5
899.184	3793.5
897.248	3835
895.313	3817
893.376	3815
891.44	3780.5
889.502	3816.5
887.564	3808
885.627	3822
883.688	3848.5
881.748	3861
879.809	3833.5
877.869	3825
875.928	3822.5
873.987	3872.5
872.046	3889
870.104	3870.5
868.161	3913.5
866.218	3906.5
864.275	3925.5
862.331	3935.5
860.387	3979.5
858.442	4005
856.497	3969.5
854.55	3969.5
852.604	3938
850.658	3987.5
848.711	4026
846.763	4016
844.815	4013
842.866	4018
840.917	4000
838.967	4062.5
837.017	4029
835.066	4031.5
833.115	4080
831.163	4056.5
829.211	4065
827.259	4029
825.306	4084
823.353	4071.5
821.399	4070.5
819.444	4068.5
817.489	4098.5
815.533	4087.5
813.578	4129.5
811.621	4096.5
809.665	4146.5
807.707	4137
805.749	4108.5
803.791	4128.5
801.833	4133.5
799.873	4174
797.913	4132.5
795.953	4181.5
793.992	4179
792.031	4198.5
790.069	4173
788.107	4220.5
786.145	4211
784.181	4208
782.218	4131.5
780.254	4207.5
778.289	4272
776.324	4249.5
774.358	4312.5
772.392	4306
770.426	4339.5
768.458	4355.5
766.491	4309.5
764.523	4318
762.555	4334.5
760.585	4404
758.616	4412.5
756.647	4443.5
754.676	4494
752.705	4491.5
750.734	4455.5
748.762	4557
746.79	4565.5
744.817	4579
742.844	4595.5
740.87	4612.5
738.895	4546
736.921	4514
734.945	4532.5
732.969	4516
730.993	4517.5
729.017	4473
727.039	4483
725.062	4473
723.083	4481
721.105	4469
719.125	4505.5
717.145	4522.5
715.166	4521
713.185	4506
711.204	4549.5
709.222	4545.5
707.24	4571
705.258	4611
703.274	4616
701.291	4625
699.307	4609.5
697.323	4634.5
695.337	4607.5
693.352	4649.5
691.366	4606.5
689.38	4639
687.392	4663
685.405	4679
683.417	4656.5
681.429	4731.5
679.439	4680.5
677.45	4742.5
675.46	4742.5
673.469	4761.5
671.479	4733
669.487	4733
667.495	4722
665.503	4788
663.51	4783.5
661.517	4746
659.523	4749.5
657.528	4799
655.534	4843.5
653.538	4824.5
651.543	4840
649.546	4886.5
647.549	4847
645.552	4885.5
643.555	4874
641.556	4890
639.557	4880
637.558	4924.5
635.558	4896
633.558	4853.5
631.558	4912
629.556	4917.5
627.554	4914.5
625.552	4910
623.55	4925
621.546	4993.5
619.543	5003.5
617.538	5019.5
615.534	4976.5
613.529	5012
611.523	5010
609.516	5010.5
607.51	5084
605.503	5016.5
603.495	5078
601.488	5111
599.479	5069.5
597.47	5102.5
595.46	5109
593.45	5132.5
591.439	5114
589.428	5159
587.417	5189
585.405	5138
583.392	5205
581.379	5221.5
579.365	5208
577.351	5244
575.337	5228
573.322	5217
571.306	5240
569.29	5283.5
567.274	5274.5
565.256	5308
563.238	5277.5
561.22	5355.5
559.202	5294
557.183	5315
555.164	5305
553.144	5319
551.123	5357.5
549.102	5316.5
547.08	5332
545.058	5309
543.036	5307
541.013	5345
538.989	5299
536.966	5294.5
534.941	5317
532.916	5335.5
530.891	5364
528.864	5332.5
526.838	5329.5
524.811	5365
522.784	5353.5
520.755	5373.5
518.727	5330.5
516.698	5430
514.668	5367
512.638	5407
510.608	5405.5
508.577	5390
506.545	5443.5
504.514	5402.5
502.48	5380
500.448	5420.5
498.414	5440
496.38	5486.5
494.346	5554.5
492.31	5493.5
490.275	5486
488.239	5485.5
486.202	5514
484.166	5470.5
482.128	5524
480.09	5617
478.052	5628
476.013	5489
473.973	5537.5
471.933	5563
469.893	5578
467.851	5600
465.811	5554
463.768	5595
461.725	5578
459.683	5602
457.639	5595.5
455.595	5634.5
453.55	5614
451.506	5624.5
449.46	5679
447.414	5694
445.367	5707.5
443.32	5641
441.273	5679.5
439.224	5724.5
437.176	5706.5
435.127	5788
433.077	5778
431.028	5772.5
428.977	5838
426.926	5815.5
424.874	5767.5
422.822	5841.5
420.769	5818
418.716	5786
416.663	5838.5
414.608	5833.5
412.554	5789
410.499	5875.5
408.443	5863.5
406.387	5915.5
404.33	5912
402.273	5880
400.215	5985
398.157	5939.5
396.098	5956
394.039	5897
391.979	5872
389.919	5956.5
387.859	5927.5
385.798	5918.5
383.735	5862.5
381.673	5865
379.611	5898
377.548	5874.5
375.484	5888
373.419	5852
371.354	6017.5
369.29	5959
367.224	5924
365.157	5962.5
363.09	5980.5
361.023	6035
358.955	6026
356.887	5959
354.818	6010.5
352.749	5970
350.679	6030
348.609	6002
346.538	6009
344.467	5974
342.395	6014
340.322	5985.5
338.25	6061
336.176	6052.5
334.102	6069
332.027	6045
329.953	6050
327.877	6061.5
325.801	6120.5
323.725	6071
321.647	6039
319.57	5985.5
317.492	6026
315.414	6082.5
313.335	6022
311.255	6018
309.174	6026.5
307.095	6018.5
305.014	6039.5
302.932	6045.5
300.85	6088.5
298.767	6103
296.684	6034.5
294.6	6087.5
292.516	6013.5
290.432	6062
288.347	6135
286.261	6092.5
284.174	6100
282.087	6004
280.001	6061.5
277.913	6086
275.824	6084
273.736	6000
271.646	6099.5
269.557	6072.5
267.466	6128.5
265.375	6141
263.283	6091
261.192	6108.5
259.099	6134
257.007	6105
254.913	6144.5
252.819	6098
250.725	6068.5
248.63	6017.5
246.535	6125.5
244.439	6061.5
242.342	6070.5
240.245	6021
238.148	6071.5
236.049	6064
233.951	6008.5
231.851	6041.5
229.753	6018
227.652	6055
225.552	6007
223.451	6058.5
221.349	5982.5
219.246	6085.5
217.143	6026
215.04	6063
212.937	6035.5
210.832	6071
208.727	6106.5
206.623	6116.5
204.516	6048
202.41	6092
200.303	6092.5
198.196	6065
196.088	6054.5
193.98	6080
191.871	5999
189.762	6008.5
187.651	5939.5
185.541	5874
183.43	5943
181.319	6039.5
179.206	5884
177.094	5926.5
174.981	5885.5
172.867	5877
170.753	5851
168.638	5870.5
166.523	5826.5
164.408	5824.5
162.291	5776.5
160.174	5745
158.057	5750.5
155.939	5700.5
153.821	5608
151.702	5640
149.583	5550.5
147.463	5449
145.343	5367
143.222	5297
141.101	5171.5
138.978	5051
136.856	4969.5
134.734	4884.5
132.61	4722
130.486	4603
128.361	4423.5
126.236	4267.5
124.111	4080
121.984	3903
119.858	3643.5
117.73	3373
115.603	3070
113.475	2804
111.346	2478
109.217	2156
107.087	1844.5
104.956	1579
102.826	1371
100.694	1162.5
98.563	1056
96.4298	926.5
94.2969	829.5
92.1642	805
90.0299	751
87.8957	672
